File: Raman/notes/p-propylene-2.txt
151.973	1465.52
160.337	1453.65
168.689	1455.33
177.03	1444.52
185.36	1421.27
193.679	1431.13
201.987	1416.65
210.283	1402.32
218.569	1417.79
226.844	1394.4
235.108	1381.78
243.36	1386.78
251.602	1381.05
259.832	1366.76
268.052	1350.8
276.261	1343.16
284.459	1327.41
292.646	1285.61
300.822	1298.17
308.988	1341.01
317.142	1340.55
325.286	1291.11
333.42	1300.57
341.542	1234.25
349.654	1262.56
357.754	1248.55
365.845	1234.43
373.925	1222.14
381.993	1248.45
390.052	1296.38
398.1	1263.39
406.137	1234.49
414.164	1245.6
422.18	1199.13
430.186	1187.99
438.181	1177.49
446.166	1170.51
454.14	1170.19
462.104	1170.86
470.058	1154.02
478.001	1170.24
485.934	1166.25
493.856	1125.11
501.768	1127.57
509.669	1130.9
517.561	1134.88
525.443	1137.97
533.313	1120.66
541.174	1113.44
549.025	1100.75
556.865	1075.89
564.695	1072.8
572.515	1065.54
580.325	1072.92
588.125	1075.73
595.915	1053.71
603.695	1072.68
611.464	1046.77
619.224	1032.2
626.973	1022.65
634.713	1016.28
642.442	1008.56
650.162	1007.79
657.872	1030.82
665.572	1004.7
673.262	1046.01
680.942	1036.63
688.611	994.367
696.272	966.52
703.922	940.417
711.564	972.677
719.194	937.964
726.815	944.271
734.427	949.564
742.028	988.585
749.62	953.764
757.203	908.222
764.776	919.493
772.338	930.688
779.892	931.553
787.435	912.097
794.97	922.396
802.494	982.633
810.009	935.634
817.515	900.576
825.011	914.15
832.497	938.211
839.974	928.837
847.442	876.654
854.9	861.024
862.349	865.666
869.788	853.753
877.217	839.326
884.637	839.608
892.049	837.213
899.451	816.808
906.842	810.071
914.226	830.967
921.599	815.704
928.964	804.587
936.319	810.307
943.665	810.91
951.002	808.754
958.329	797.241
965.648	819.429
972.957	797.181
980.257	786.773
987.548	804.67
994.829	822.207
1002.1	801.98
1009.37	765.607
1016.62	755.765
1023.87	782.797
1031.1	791.252
1038.33	767.154
1045.55	748.684
1052.76	742.634
1059.96	739.143
1067.15	730.737
1074.33	734.526
1081.5	723.374
1088.67	735.012
1095.83	718.167
1102.97	732.274
1110.11	746.161
1117.24	727.694
1124.36	702.51
1131.47	709.513
1138.57	749.002
1145.67	756.037
1152.75	758.534
1159.83	730.024
1166.9	724.226
1173.96	722.319
1181.01	706.463
1188.05	700.057
1195.08	706.633
1202.11	702.009
1209.12	710.663
1216.13	727.077
1223.13	669.492
1230.12	653.018
1237.1	640.711
1244.07	688.168
1251.04	660.259
1257.99	670.31
1264.94	651.549
1271.88	654.475
1278.81	672.517
1285.73	663.884
1292.64	663.768
1299.55	660.418
1306.44	652.158
1313.33	663.9
1320.21	693.944
1327.08	702.494
1333.95	723.384
1340.8	715.741
1347.65	620.173
1354.49	651.13
1361.32	652.633
1368.14	621.201
1374.95	616.819
1381.76	608.505
1388.55	608.085
1395.34	606.204
1402.12	615.066
1408.89	620.758
1415.66	594.612
1422.41	582.398
1429.16	604.351
1435.9	612.26
1442.63	642.103
1449.35	671.86
1456.07	663.428
1462.78	607.531
1469.48	573.944
1476.17	572.472
1482.85	559.687
1489.53	572.574
1496.19	564.244
1502.85	522.252
1509.5	582.781
1516.15	556.633
1522.78	629.199
1529.41	632.418
1536.03	558.622
1542.64	540.624
1549.24	548.168
1555.84	522.497
1562.42	521.188
1569.01	524.167
1575.58	507.148
1582.14	499.393
1588.7	503.812
1595.25	502.929
1601.79	515.461
1608.32	488.265
1614.85	500.291
1621.36	488.512
1627.87	470.059
1634.38	480.559
1640.87	475.818
1647.36	469.071
1653.84	463.653
1660.31	455.882
1666.77	464.501
1673.23	461.864
1679.68	437.375
1686.12	470.82
1692.55	463.386
1698.98	412.765
1705.39	448.781
1711.81	429.93
1718.21	427.279
1724.6	428.397
1730.99	410.923
1737.37	429.115
1743.75	415.765
1750.11	418.159
1756.47	414.269
1762.82	401.994
1769.16	410.863
1775.5	403.27
1781.83	385.423
1788.15	396.327
1794.46	372.268
1800.77	388.764
1807.07	380.678
1813.36	388.715
1819.65	387.977
1825.92	373.561
1832.19	359.03
1838.46	359.225
1844.71	356.413
1850.96	363.64
1857.2	364.23
1863.43	341.353
1869.66	346.16
1875.88	342.84
1882.09	331.785
1888.29	334.545
1894.49	353.368
1900.68	357.857
1906.86	332.46
1913.04	333.129
1919.21	326.083
1925.37	328.292
1931.53	315.348
1937.67	317.906
1943.81	316.749
1949.95	325.383
1956.07	307.952
1962.19	320.642
1968.31	302.99
1974.41	294.076
1980.51	308.586
1986.6	279.738
1992.68	299.201
1998.76	317.118