File: Raman/notes/Polystrene.txt
151.973	176.608
160.337	148.549
168.689	139.336
177.03	126.399
185.36	111.442
193.679	116.194
201.987	129.923
210.283	134.787
218.569	137.385
226.844	122.111
235.108	86.4897
243.36	56.048
251.602	51.1515
259.832	34.6707
268.052	34.5083
276.261	39.3737
284.459	29.7255
292.646	26.9133
300.822	22.662
308.988	24.2744
317.142	23.9841
325.286	25.448
333.42	27.6007
341.542	26.2982
349.654	24.0969
357.754	25.7834
365.845	25.5628
373.925	27.2806
381.993	30.2567
390.052	32.4208
398.1	42.8683
406.137	40.8896
414.164	37.5777
422.18	29.6504
430.186	25.8136
438.181	25.7999
446.166	21.4207
454.14	22.7574
462.104	19.1044
470.058	20.4446
478.001	19.3972
485.934	18.7285
493.856	17.7097
501.768	15.9793
509.669	15.9835
517.561	21.9128
525.443	26.006
533.313	26.0038
541.174	25.5783
549.025	26.5851
556.865	24.6759
564.695	23.3163
572.515	22.4216
580.325	19.4882
588.125	19.8495
595.915	20.4431
603.695	23.2578
611.464	52.7984
619.224	87.72
626.973	35.9775
634.713	22.0768
642.442	18.3814
650.162	17.8636
657.872	17.0102
665.572	18.5618
673.262	18.0863
680.942	16.0449
688.611	18.0604
696.272	18.5014
703.922	17.1876
711.564	17.4002
719.194	20.1146
726.815	22.6001
734.427	31.1738
742.028	39.4711
749.62	43.4405
757.203	47.7503
764.776	46.6659
772.338	47.2094
779.892	53.8763
787.435	72.0366
794.97	70.7635
802.494	48.4834
810.009	35.3519
817.515	28.5978
825.011	23.4649
832.497	28.4758
839.974	37.0269
847.442	31.0947
854.9	30.6727
862.349	27.5445
869.788	25.9727
877.217	24.5104
884.637	25.2994
892.049	25.742
899.451	33.5359
906.842	33.7071
914.226	25.8536
921.599	24.9642
928.964	22.4211
936.319	25.2756
943.665	24.9657
951.002	27.3047
958.329	28.7995
965.648	27.5641
972.957	34.5757
980.257	50.0144
987.548	106.138
994.829	363.855
1002.1	398.391
1009.37	68.8706
1016.62	55.4043
1023.87	127.788
1031.1	152.218
1038.33	67.1491
1045.55	42.2289
1052.76	35.1936
1059.96	39.3247
1067.15	45.6285
1074.33	42.9499
1081.5	39.8303
1088.67	35.429
1095.83	40.3445
1102.97	30.2862
1110.11	25.8458
1117.24	27.7371
1124.36	23.7863
1131.47	23.5167
1138.57	30.9926
1145.67	59.5771
1152.75	74.4846
1159.83	51.0263
1166.9	47.5767
1173.96	75.4329
1181.01	94.7311
1188.05	95.4306
1195.08	100.616
1202.11	86.3511
1209.12	52.5207
1216.13	43.5413
1223.13	32.7257
1230.12	33.2156
1237.1	30.0218
1244.07	27.8685
1251.04	31.7051
1257.99	28.6364
1264.94	25.7905
1271.88	27.9934
1278.81	31.0808
1285.73	33.264
1292.64	38.0858
1299.55	35.1334
1306.44	41.255
1313.33	40.651
1320.21	46.4189
1327.08	51.0142
1333.95	32.9452
1340.8	35.1936
1347.65	35.3488
1354.49	29.3999
1361.32	28.6833
1368.14	32.7765
1374.95	25.4131
1381.76	21.9993
1388.55	20.3284
1395.34	16.5599
1402.12	20.5152
1408.89	24.753
1415.66	17.2887
1422.41	22.429
1429.16	27.7122
1435.9	34.9573
1442.63	49.4926
1449.35	45.9621
1456.07	34.3099
1462.78	19.7939
1469.48	19.3097
1476.17	23.1599
1482.85	19.6005
1489.53	20.716
1496.19	25.3589
1502.85	20.7963
1509.5	18.5903
1516.15	21.7112
1522.78	23.6578
1529.41	25.3884
1536.03	22.8351
1542.64	20.9736
1549.24	21.7883
1555.84	27.729
1562.42	28.5416
1569.01	29.9863
1575.58	49.5538
1582.14	62.0354
1588.7	44.6714
1595.25	97.0741
1601.79	124.21
1608.32	48.6967
1614.85	28.2982
1621.36	23.3248
1627.87	27.8328
1634.38	24.4837
1640.87	18.9803
1647.36	18.6868
1653.84	21.6858
1660.31	21.9581
1666.77	19.7677
1673.23	18.9271
1679.68	22.2907
1686.12	22.701
1692.55	18.2612
1698.98	24.3126
1705.39	21.2497
1711.81	19.128
1718.21	22.7608
1724.6	19.7233
1730.99	22.1767
1737.37	23.2376
1743.75	18.2469
1750.11	16.2217
1756.47	21.3775
1762.82	23.7266
1769.16	21.9762
1775.5	20.1419
1781.83	21.4032
1788.15	16.246
1794.46	20.9387
1800.77	20.8884
1807.07	17.2893
1813.36	23.3411
1819.65	25.1294
1825.92	24.3775
1832.19	20.3479
1838.46	19.8845
1844.71	21.1759
1850.96	21.9111
1857.2	22.1846
1863.43	24.0446
1869.66	20.6015
1875.88	21.701
1882.09	24.0572
1888.29	21.2748
1894.49	18.6744
1900.68	22.8674
1906.86	19.9561
1913.04	21.1361
1919.21	19.5591
1925.37	20.2488
1931.53	24.9039
1937.67	21.6378
1943.81	21.785
1949.95	17.9577
1956.07	23.2308
1962.19	24.6679
1968.31	20.8381
1974.41	25.3606
1980.51	24.1682
1986.6	22.8144
1992.68	24.1974
1998.76	30.6153