File: Raman/Nitrocellulose.txt
151.973	199.906
160.337	186.302
168.689	173.45
177.03	168.464
185.36	170.637
193.679	180.707
201.987	179.985
210.283	176.85
218.569	173.186
226.844	168.897
235.108	165.875
243.36	151.613
251.602	136.323
259.832	137.74
268.052	131.208
276.261	130.944
284.459	125.742
292.646	124.554
300.822	121.969
308.988	117.929
317.142	124.496
325.286	117.037
333.42	121.764
341.542	117.444
349.654	113.337
357.754	109.456
365.845	108.698
373.925	105.438
381.993	110.176
390.052	116.795
398.1	119.004
406.137	126.96
414.164	108.885
422.18	113.536
430.186	111.692
438.181	107.094
446.166	107.643
454.14	103.349
462.104	103.041
470.058	105.151
478.001	104.392
485.934	97.6502
493.856	98.5368
501.768	96.9861
509.669	97.6464
517.561	93.884
525.443	103.044
533.313	105.829
541.174	100.909
549.025	110.308
556.865	108.483
564.695	105.465
572.515	100.702
580.325	98.0399
588.125	103.312
595.915	105.747
603.695	101.71
611.464	107.2
619.224	108.975
626.973	108.876
634.713	111.223
642.442	97.4088
650.162	95.4039
657.872	100.657
665.572	97.365
673.262	93.671
680.942	97.9586
688.611	99.583
696.272	99.5514
703.922	93.3396
711.564	87.2411
719.194	86.6195
726.815	84.6611
734.427	87.3119
742.028	88.6469
749.62	87.0493
757.203	84.8066
764.776	80.3384
772.338	81.0025
779.892	78.3644
787.435	81.5199
794.97	83.3087
802.494	77.8726
810.009	85.5763
817.515	88.4242
825.011	96.2727
832.497	110.613
839.974	128.403
847.442	131.921
854.9	133.833
862.349	122.459
869.788	112.989
877.217	104.484
884.637	92.3445
892.049	93.5964
899.451	98.1167
906.842	97.4294
914.226	93.0268
921.599	93.1153
928.964	88.7029
936.319	79.0089
943.665	82.4257
951.002	81.0885
958.329	75.4842
965.648	77.4134
972.957	82.9154
980.257	90.1523
987.548	85.8813
994.829	91.7531
1002.1	88.0913
1009.37	81.7161
1016.62	84.4941
1023.87	88.3551
1031.1	85.8123
1038.33	86.793
1045.55	89.1465
1052.76	86.4821
1059.96	92.5763
1067.15	94.7754
1074.33	96.3952
1081.5	89.9793
1088.67	93.8678
1095.83	96.4533
1102.97	99.3602
1110.11	99.372
1117.24	104.37
1124.36	102.792
1131.47	95.2017
1138.57	85.5152
1145.67	94.3498
1152.75	95.593
1159.83	91.1846
1166.9	78.9099
1173.96	79.1925
1181.01	79.6882
1188.05	74.5282
1195.08	75.8047
1202.11	77.1495
1209.12	74.3244
1216.13	73.9765
1223.13	77.1158
1230.12	78.4969
1237.1	80.9028
1244.07	88.2346
1251.04	91.3459
1257.99	90.1365
1264.94	102.128
1271.88	129.454
1278.81	146.729
1285.73	145.823
1292.64	114.176
1299.55	96.6556
1306.44	85.09
1313.33	96.8835
1320.21	94.6891
1327.08	94.7605
1333.95	97.1291
1340.8	101.253
1347.65	98.4139
1354.49	102.16
1361.32	114.238
1368.14	116.211
1374.95	110.784
1381.76	109.437
1388.55	98.7732
1395.34	90.6404
1402.12	93.3564
1408.89	93.6514
1415.66	89.1665
1422.41	87.9456
1429.16	81.4077
1435.9	84.8509
1442.63	84.4672
1449.35	95.9581
1456.07	85.6096
1462.78	89.372
1469.48	90.6435
1476.17	85.0692
1482.85	84.2283
1489.53	83.6319
1496.19	86.5537
1502.85	82.2792
1509.5	81.2613
1516.15	82.6361
1522.78	78.4754
1529.41	79.5461
1536.03	90.9924
1542.64	76.9804
1549.24	71.5784
1555.84	78.7273
1562.42	78.9225
1569.01	72.2083
1575.58	72.6517
1582.14	77.0966
1588.7	76.451
1595.25	79.7268
1601.79	76.354
1608.32	77.6239
1614.85	77.5037
1621.36	78.9914
1627.87	80.1688
1634.38	76.8303
1640.87	84.5718
1647.36	83.0508
1653.84	87.0723
1660.31	83.9672
1666.77	80.2911
1673.23	75.6624
1679.68	75.192
1686.12	75.5786
1692.55	67.118
1698.98	68.7878
1705.39	69.5397
1711.81	66.7176
1718.21	67.346
1724.6	67.9149
1730.99	69.1921
1737.37	70.6983
1743.75	68.6149
1750.11	67.1563
1756.47	65.4912
1762.82	63.4912
1769.16	62.8162
1775.5	64.1288
1781.83	64.112
1788.15	62.653
1794.46	58.737
1800.77	66.1172
1807.07	62.2662
1813.36	60.0589
1819.65	65.4256
1825.92	65.0557
1832.19	62.3498
1838.46	47.0256
1844.71	58.8487
1850.96	63.6459
1857.2	57.7435
1863.43	58.889
1869.66	63.4561
1875.88	55.1564
1882.09	55.6492
1888.29	60.1268
1894.49	56.6009
1900.68	56.9347
1906.86	58.2373
1913.04	60.0365
1919.21	54.2932
1925.37	57.6648
1931.53	54.6011
1937.67	55.3802
1943.81	50.7954
1949.95	52.2339
1956.07	53.8919
1962.19	55.4555
1968.31	53.2723
1974.41	54.0635
1980.51	54.6397
1986.6	49.6417
1992.68	46.0501
1998.76	53.2508