File: Raman/p-propylene.txt
151.973	815.663
160.337	777.789
168.689	791.21
177.03	778.004
185.36	772.22
193.679	759.64
201.987	732.088
210.283	738.651
218.569	738.71
226.844	733.632
235.108	726.28
243.36	709.618
251.602	719.407
259.832	742.373
268.052	715.989
276.261	698.969
284.459	694.459
292.646	680.106
300.822	671.793
308.988	685.211
317.142	684.824
325.286	670.642
333.42	658.765
341.542	648.862
349.654	654.993
357.754	648.512
365.845	649.357
373.925	635.279
381.993	649.312
390.052	676.912
398.1	712.096
406.137	666.884
414.164	630.693
422.18	616.499
430.186	617.506
438.181	628.581
446.166	625.442
454.14	619.973
462.104	611.169
470.058	609.382
478.001	611.258
485.934	602.13
493.856	583.369
501.768	591.267
509.669	591.43
517.561	599.729
525.443	612.412
533.313	578.083
541.174	556.628
549.025	559.74
556.865	565.009
564.695	558.414
572.515	560.69
580.325	577.654
588.125	563.161
595.915	561.155
603.695	543.884
611.464	537.314
619.224	545.289
626.973	542.665
634.713	535.742
642.442	524.942
650.162	516.486
657.872	529.921
665.572	534.162
673.262	566.64
680.942	574.707
688.611	515.121
696.272	509.013
703.922	505.332
711.564	508.518
719.194	510.299
726.815	505.8
734.427	488.465
742.028	536.735
749.62	515.888
757.203	491.552
764.776	485.614
772.338	496.072
779.892	503.385
787.435	489.445
794.97	501.61
802.494	577.694
810.009	551.796
817.515	483.186
825.011	488.323
832.497	530.511
839.974	574.627
847.442	502.9
854.9	466.508
862.349	469.84
869.788	457.167
877.217	448.677
884.637	457.205
892.049	461.479
899.451	452.87
906.842	439.436
914.226	433.175
921.599	437.262
928.964	434.064
936.319	442.876
943.665	441.339
951.002	441.206
958.329	424.792
965.648	435.929
972.957	454.583
980.257	435.049
987.548	446.85
994.829	466.902
1002.1	444.843
1009.37	414.844
1016.62	412.693
1023.87	419.894
1031.1	448.41
1038.33	434.063
1045.55	422.449
1052.76	413.602
1059.96	391.752
1067.15	391.269
1074.33	408.153
1081.5	405.621
1088.67	377.856
1095.83	385.694
1102.97	420.119
1110.11	402.777
1117.24	394.689
1124.36	408.314
1131.47	391.418
1138.57	424.497
1145.67	435.312
1152.75	452.074
1159.83	438.574
1166.9	422.936
1173.96	393.54
1181.01	383.303
1188.05	400.927
1195.08	390.027
1202.11	385.282
1209.12	406.41
1216.13	404.305
1223.13	376.201
1230.12	356.199
1237.1	356.798
1244.07	358.031
1251.04	354.332
1257.99	353.546
1264.94	368.597
1271.88	384.957
1278.81	361.595
1285.73	371.764
1292.64	373.438
1299.55	367.819
1306.44	372.979
1313.33	362.207
1320.21	397.438
1327.08	429.475
1333.95	425.615
1340.8	422.989
1347.65	375.556
1354.49	370.07
1361.32	367.712
1368.14	369.673
1374.95	365.645
1381.76	338.617
1388.55	331.708
1395.34	321.537
1402.12	322.617
1408.89	337.654
1415.66	334.396
1422.41	330.627
1429.16	343.884
1435.9	355.291
1442.63	387.155
1449.35	423.61
1456.07	413.381
1462.78	373.729
1469.48	339.608
1476.17	320.435
1482.85	309.89
1489.53	304.721
1496.19	315.205
1502.85	296.39
1509.5	295.015
1516.15	313.362
1522.78	401.352
1529.41	384.374
1536.03	320.059
1542.64	295.587
1549.24	288.933
1555.84	290.251
1562.42	288.856
1569.01	276.402
1575.58	281.352
1582.14	280.198
1588.7	256.1
1595.25	278.555
1601.79	288.176
1608.32	277.7
1614.85	265.853
1621.36	267.543
1627.87	259.704
1634.38	267.695
1640.87	258.188
1647.36	251.158
1653.84	242.466
1660.31	240.151
1666.77	247.737
1673.23	249.383
1679.68	245.607
1686.12	240.025
1692.55	250.439
1698.98	232.77
1705.39	225.605
1711.81	220.85
1718.21	234.724
1724.6	238.909
1730.99	221.202
1737.37	219.56
1743.75	222.535
1750.11	216.775
1756.47	222.919
1762.82	225.942
1769.16	225.067
1775.5	229.438
1781.83	225.176
1788.15	217.734
1794.46	221.92
1800.77	201.568
1807.07	201.33
1813.36	216.501
1819.65	207.244
1825.92	211.243
1832.19	211.476
1838.46	213.783
1844.71	190.993
1850.96	207.307
1857.2	211.882
1863.43	194.063
1869.66	195.399
1875.88	193.563
1882.09	191.795
1888.29	188.501
1894.49	189.238
1900.68	192.324
1906.86	187.316
1913.04	186.897
1919.21	189.396
1925.37	185.077
1931.53	184.975
1937.67	178.692
1943.81	170.038
1949.95	178.15
1956.07	174.46
1962.19	176.925
1968.31	176.251
1974.41	171.444
1980.51	167.752
1986.6	171.487
1992.68	167.04
1998.76	167.526